Data from Subt10__4__15-50-49-616.txt Node

Date: Thu Apr 21 15:50:49 CEST 2022
User: jeppe
Spectrometer: FLMS05814
Trigger mode: 0
Integration Time (sec): 1,000000E-1
Scans to average: 1
Electric dark correction enabled: true
Nonlinearity correction enabled: false
Boxcar width: 0
XAxis mode: Wavelengths
Number of Pixels in Spectrum: 2048
>>>>>Begin Spectral Data<<<<<
188,012	11,12
188,47	11,12
188,927	11,12
189,385	-26,33
189,842	-26,33
190,3	8,78
190,757	57,93
191,215	74,31
191,672	-40,37
192,129	-54,42
192,586	15,8
193,044	13,46
193,501	39,2
193,958	128,14
194,415	48,57
194,872	-96,55
195,329	-61,44
195,787	-66,12
196,244	-2,93
196,7	-61,44
197,157	-2,93
197,614	93,04
198,071	-91,87
198,528	62,61
198,985	36,86
199,441	-38,03
199,898	-49,74
200,355	-2,93
200,812	-75,48
201,268	118,78
201,725	-26,33
202,181	46,23
202,638	86,01
203,094	29,84
203,551	27,5
204,007	22,82
204,463	62,61
204,92	-28,67
205,376	-26,33
205,832	-35,69
206,288	60,27
206,744	13,46
207,201	-12,29
207,657	53,25
208,113	57,93
208,569	13,46
209,025	78,99
209,481	67,29
209,937	-14,63
210,392	86,01
210,848	32,18
211,304	22,82
211,76	27,5
212,215	4,1
212,671	13,46
213,127	27,5
213,582	-52,08
214,038	95,38
214,494	8,78
214,949	13,46
215,404	86,01
215,86	74,31
216,315	-84,84
216,771	71,97
217,226	41,54
217,681	53,25
218,136	-2,93
218,592	109,42
219,047	-26,33
219,502	18,14
219,957	-52,08
220,412	-40,37
220,867	29,84
221,322	50,91
221,777	109,42
222,232	-5,27
222,687	4,1
223,142	-42,71
223,596	-70,8
224,051	62,61
224,506	144,53
224,96	107,08
225,415	83,67
225,87	88,36
226,324	121,12
226,779	-145,7
227,233	55,59
227,688	11,12
228,142	4,1
228,597	-26,33
229,051	88,36
229,505	-59,1
229,959	53,25
230,414	-14,63
230,868	29,84
231,322	13,46
231,776	-47,4
232,23	1,76
232,684	78,99
233,138	1,76
233,592	13,46
234,046	-73,14
234,5	4,1
234,954	-5,27
235,408	90,7
235,861	4,1
236,315	-19,31
236,769	-56,76
237,222	27,5
237,676	11,12
238,13	69,63
238,583	48,57
239,037	-59,1
239,49	-2,93
239,944	88,36
240,397	88,36
240,85	-38,03
241,304	81,33
241,757	27,5
242,21	74,31
242,663	88,36
243,117	1,76
243,57	-7,61
244,023	34,52
244,476	-119,95
244,929	60,27
245,382	18,14
245,835	78,99
246,288	83,67
246,741	-26,33
247,193	46,23
247,646	-96,55
248,099	111,76
248,552	-26,33
249,004	8,78
249,457	-7,61
249,909	53,25
250,362	81,33
250,814	29,84
251,267	-16,97
251,719	55,59
252,172	22,82
252,624	-7,61
253,076	-31,01
253,529	95,38
253,981	-7,61
254,433	64,95
254,885	-21,65
255,337	104,74
255,79	118,78
256,242	8,78
256,694	71,97
257,146	-0,59
257,598	34,52
258,049	-63,78
258,501	-68,46
258,953	11,12
259,405	-26,33
259,857	121,12
260,308	48,57
260,76	-47,4
261,212	130,48
261,663	11,12
262,115	81,33
262,566	-23,99
263,018	39,2
263,469	34,52
263,92	46,23
264,372	71,97
264,823	83,67
265,274	-0,59
265,726	25,16
266,177	160,91
266,628	-33,35
267,079	71,97
267,53	132,83
267,981	-52,08
268,432	53,25
268,883	22,82
269,334	4,1
269,785	29,84
270,236	4,1
270,687	86,01
271,137	13,46
271,588	-14,63
272,039	43,89
272,489	130,48
272,94	41,54
273,391	60,27
273,841	-75,48
274,292	97,72
274,742	20,48
275,192	144,53
275,643	-23,99
276,093	34,52
276,543	8,78
276,994	41,54
277,444	-80,16
277,894	22,82
278,344	-0,59
278,794	34,52
279,244	4,1
279,694	13,46
280,144	22,82
280,594	39,2
281,044	48,57
281,494	32,18
281,944	13,46
282,394	55,59
282,843	69,63
283,293	81,33
283,743	13,46
284,192	-5,27
284,642	-16,97
285,091	74,31
285,541	181,98
285,99	32,18
286,44	27,5
286,889	135,17
287,338	53,25
287,788	8,78
288,237	83,67
288,686	146,87
289,135	78,99
289,584	74,31
290,034	39,2
290,483	43,89
290,932	-12,29
291,381	69,63
291,83	43,89
292,278	128,14
292,727	144,53
293,176	67,29
293,625	214,74
294,074	181,98
294,522	153,89
294,971	139,85
295,42	247,51
295,868	193,68
296,317	303,68
296,765	210,06
297,214	254,53
297,662	275,6
298,11	280,28
298,559	317,73
299,007	252,19
299,455	247,51
299,903	284,96
300,352	357,52
300,8	348,15
301,248	324,75
301,696	369,22
302,144	448,8
302,592	453,48
303,04	462,84
303,488	352,84
303,936	490,93
304,383	521,35
304,831	631,36
305,279	612,64
305,727	638,38
306,174	720,3
306,622	734,34
307,069	678,17
307,517	790,52
307,964	710,94
308,412	722,64
308,859	748,39
309,306	870,09
309,754	860,73
310,201	909,88
310,648	1017,55
311,096	1106,49
311,543	928,61
311,99	1050,32
312,437	1087,76
312,884	1062,02
313,331	1214,15
313,778	1155,64
314,225	1265,64
314,672	1228,2
315,118	1118,19
315,565	1267,99
316,012	1347,56
316,459	1193,09
316,905	1326,5
317,352	1319,48
317,798	1244,58
318,245	1345,22
318,691	1394,37
319,138	1464,59
319,584	1401,4
320,031	1546,51
320,477	1499,7
320,923	1607,36
321,37	1572,25
321,816	1703,32
322,262	1698,64
322,708	1682,26
323,154	1703,32
323,6	1883,55
324,046	1925,68
324,492	1843,76
324,938	1923,34
325,384	2028,66
325,83	2084,83
326,276	2073,13
326,721	2126,96
327,167	2054,41
327,613	1993,55
328,058	1993,55
328,504	2119,94
328,949	1993,55
329,395	2049,72
329,84	2028,66
330,286	1958,44
330,731	2129,3
331,177	2286,12
331,622	1981,85
332,067	2197,18
332,512	2019,3
332,957	2007,59
333,403	2117,6
333,848	2232,29
334,293	2026,32
334,738	2061,43
335,183	2073,13
335,628	2126,96
336,072	2176,11
336,517	2185,48
336,962	2075,47
337,407	2218,24
337,852	2192,5
338,296	2213,56
338,741	2213,56
339,185	2204,2
339,63	2112,92
340,074	2080,15
340,519	2293,14
340,963	2279,1
341,408	2143,35
341,852	2272,08
342,296	2222,92
342,741	2346,97
343,185	2311,86
343,629	2047,38
344,073	2204,2
344,517	2157,39
344,961	2194,84
345,405	2155,05
345,849	2070,79
346,293	2279,1
346,737	2199,52
347,181	2208,88
347,624	2178,45
348,068	2075,47
348,512	2190,16
348,955	2183,13
349,399	2141,01
349,843	2201,86
350,286	2152,71
350,73	2164,41
351,173	2075,47
351,617	2150,37
352,06	2148,03
352,503	2136,32
352,946	2126,96
353,39	2117,6
353,833	2075,47
354,276	2087,17
354,719	2094,19
355,162	2089,51
355,605	2098,88
356,048	2119,94
356,491	2150,37
356,934	2183,13
357,377	2136,32
357,82	1977,17
358,262	2129,3
358,705	2063,77
359,148	2105,9
359,59	2173,77
360,033	2136,32
360,475	1979,51
360,918	2190,16
361,36	1925,68
361,803	1977,17
362,245	2063,77
362,688	2082,49
363,13	2014,62
363,572	2115,26
364,014	1991,21
364,456	2007,59
364,899	2049,72
365,341	2019,3
365,783	2005,25
366,225	2049,72
366,667	2002,91
367,108	2038,02
367,55	2049,72
367,992	2155,05
368,434	2159,73
368,876	2070,79
369,317	2089,51
369,759	2112,92
370,201	1937,38
370,642	2019,3
371,084	2045,04
371,525	1944,4
371,966	1993,55
372,408	1939,72
372,849	1932,7
373,29	1871,84
373,732	1827,37
374,173	1832,05
374,614	1848,44
375,055	1801,63
375,496	1869,5
375,937	1801,63
376,378	1729,07
376,819	1960,78
377,26	1708,01
377,701	1855,46
378,142	1867,16
378,583	1850,78
379,023	1853,12
379,464	1843,76
379,905	1785,24
380,345	2040,36
380,786	1958,44
381,226	1920,99
381,667	1860,14
382,107	1813,33
382,548	1860,14
382,988	1754,82
383,428	1792,27
383,868	1719,71
384,309	1665,88
384,749	1761,84
385,189	1839,08
385,629	1679,92
386,069	1747,8
386,509	1855,46
386,949	1942,06
387,389	2054,41
387,829	2045,04
388,268	1925,68
388,708	1836,74
389,148	1881,21
389,588	1801,63
390,027	1839,08
390,467	1761,84
390,906	1778,22
391,346	1799,29
391,785	1745,45
392,225	1581,62
392,664	1682,26
393,103	1560,55
393,543	1548,85
393,982	1553,53
394,421	1490,34
394,86	1579,28
395,299	1544,17
395,738	1544,17
396,177	1527,78
396,616	1567,57
397,055	1621,41
397,494	1579,28
397,933	1691,62
398,372	1635,45
398,81	1675,24
399,249	1644,81
399,688	1841,42
400,126	1724,39
400,565	1890,57
401,004	1663,54
401,442	1644,81
401,88	1520,76
402,319	1581,62
402,757	1396,71
403,195	1525,44
403,634	1635,45
404,072	1492,68
404,51	1504,38
404,948	1558,21
405,386	1335,86
405,824	1445,87
406,262	1469,27
406,7	1757,16
407,138	1913,97
407,576	2150,37
408,014	2105,9
408,452	1930,36
408,889	1932,7
409,327	1717,37
409,765	1598
410,202	1612,04
410,64	1717,37
411,077	1937,38
411,515	1731,41
411,952	1602,68
412,389	1394,37
412,827	1272,67
413,264	1312,46
413,701	1466,93
414,138	1275,01
414,575	1289,05
415,013	1377,99
415,45	1293,73
415,887	1356,93
416,324	1431,82
416,76	1399,06
417,197	1448,21
417,634	1537,15
418,071	1663,54
418,508	1850,78
418,944	1918,65
419,381	1609,7
419,818	1462,25
420,254	1427,14
420,691	1612,04
421,127	1644,81
421,563	1874,18
422	1679,92
422,436	1558,21
422,872	1464,59
423,309	1340,54
423,745	1326,5
424,181	1160,32
424,617	1188,41
425,053	1197,77
425,489	1223,52
425,925	1162,66
426,361	1143,94
426,797	1129,89
427,233	1040,95
427,668	1083,08
428,104	1029,25
428,54	1055
428,975	1069,04
429,411	1104,15
429,847	1169,68
430,282	1017,55
430,717	1085,42
431,153	1321,82
431,588	1162,66
432,024	1186,07
432,459	1115,85
432,894	1050,32
433,329	1120,53
433,764	1141,6
434,199	1803,97
434,634	2562,3
435,069	2960,19
435,504	2318,89
435,939	1668,22
436,374	1165
436,809	1146,28
437,244	1019,89
437,678	1008,19
438,113	1024,57
438,548	1019,89
438,982	1062,02
439,417	1050,32
439,851	1052,66
440,286	1155,64
440,72	1064,36
441,154	1076,06
441,589	1078,4
442,023	1296,07
442,457	1328,84
442,891	1324,16
443,326	1345,22
443,76	1122,87
444,194	1076,06
444,628	1092,45
445,062	1160,32
445,495	1267,99
445,929	1406,08
446,363	1485,66
446,797	1354,59
447,23	1345,22
447,664	1296,07
448,098	1221,17
448,531	1087,76
448,965	1232,88
449,398	1244,58
449,832	1333,52
450,265	1403,74
450,698	1328,84
451,132	1172,02
451,565	1223,52
451,998	1193,09
452,431	1162,66
452,864	1036,27
453,297	1146,28
453,73	1104,15
454,163	1207,13
454,596	1080,74
455,029	1132,23
455,462	1085,42
455,895	1148,62
456,327	1284,37
456,76	1146,28
457,193	1349,9
457,625	1504,38
458,058	1651,83
458,49	1855,46
458,923	1796,95
459,355	1635,45
459,787	1275,01
460,22	996,48
460,652	980,1
461,084	872,43
461,516	926,27
461,948	959,03
462,381	949,67
462,813	1165
463,245	1452,89
463,676	1981,85
464,108	2428,89
464,54	2222,92
464,972	1782,9
465,404	1218,83
465,835	1186,07
466,267	1235,22
466,699	1328,84
467,13	1202,45
467,562	1193,09
467,993	1324,16
468,424	1270,33
468,856	1293,73
469,287	1525,44
469,718	1394,37
470,15	1099,47
470,581	944,99
471,012	935,63
471,443	914,56
471,874	1200,11
472,305	1263,3
472,736	1293,73
473,167	1260,96
473,598	1296,07
474,028	1083,08
474,459	1050,32
474,89	1040,95
475,32	966,06
475,751	1010,53
476,182	952,01
476,612	984,78
477,043	973,08
477,473	1085,42
477,903	937,97
478,334	1106,49
478,764	1179,04
479,194	1232,88
479,624	1200,11
480,054	1221,17
480,484	1361,61
480,914	1279,69
481,344	1172,02
481,774	1127,55
482,204	1253,94
482,634	1221,17
483,064	1179,04
483,494	1146,28
483,923	1165
484,353	1303,09
484,782	1235,22
485,212	1541,83
485,642	1590,98
486,071	3908,11
486,5	13326,43
486,93	19390,75
487,359	19580,34
487,788	10655,87
488,217	5799,26
488,647	3547,67
489,076	2410,17
489,505	1628,43
489,934	1331,18
490,363	1258,62
490,792	1275,01
491,221	1305,43
491,649	1237,56
492,078	1270,33
492,507	1150,96
492,936	1459,91
493,364	1932,7
493,793	2786,99
494,221	3042,11
494,65	2754,23
495,078	2094,19
495,507	1525,44
495,935	1312,46
496,363	1298,41
496,791	1333,52
497,22	1223,52
497,648	1401,4
498,076	1619,07
498,504	1668,22
498,932	1413,1
499,36	1279,69
499,788	1127,55
500,216	1069,04
500,643	1092,45
501,071	1298,41
501,499	1408,42
501,927	1928,02
502,354	1977,17
502,782	1729,07
503,209	1359,27
503,637	1221,17
504,064	1209,47
504,491	1052,66
504,919	1118,19
505,346	1080,74
505,773	1090,1
506,2	1216,49
506,628	1328,84
507,055	1263,3
507,482	1291,39
507,909	1277,35
508,335	1293,73
508,762	1312,46
509,189	1307,77
509,616	1289,05
510,043	1019,89
510,469	956,69
510,896	1073,72
511,323	952,01
511,749	935,63
512,176	1069,04
512,602	919,25
513,028	937,97
513,455	865,41
513,881	853,71
514,307	818,6
514,733	853,71
515,16	884,14
515,586	963,72
516,012	1010,53
516,438	935,63
516,864	959,03
517,29	851,37
517,715	937,97
518,141	980,1
518,567	1059,68
518,993	851,37
519,418	928,61
519,844	902,86
520,269	954,35
520,695	1157,98
521,12	989,46
521,546	851,37
521,971	870,09
522,396	792,86
522,822	952,01
523,247	1029,25
523,672	1008,19
524,097	1073,72
524,522	778,81
524,947	757,75
525,372	914,56
525,797	888,82
526,222	767,11
526,647	1005,85
527,071	1228,2
527,496	1129,89
527,921	1256,28
528,345	1214,15
528,77	959,03
529,194	933,29
529,619	902,86
530,043	898,18
530,468	975,42
530,892	977,76
531,316	1106,49
531,74	1001,16
532,164	1003,5
532,589	940,31
533,013	832,65
533,437	753,07
533,861	853,71
534,284	919,25
534,708	851,37
535,132	881,8
535,556	790,52
535,98	788,18
536,403	713,28
536,827	961,38
537,25	849,03
537,674	874,78
538,097	891,16
538,521	804,56
538,944	844,35
539,367	963,72
539,791	1047,97
540,214	1090,1
540,637	895,84
541,06	994,14
541,483	952,01
541,906	839,67
542,329	940,31
542,752	1125,21
543,175	1195,43
543,598	1097,13
544,02	963,72
544,443	874,78
544,866	764,77
545,288	591,57
545,711	673,49
546,133	657,11
546,556	551,78
546,978	671,15
547,4	673,49
547,823	610,29
548,245	652,42
548,667	694,55
549,089	762,43
549,511	629,02
549,933	783,49
550,355	624,34
550,777	877,12
551,199	795,2
551,621	760,09
552,043	827,96
552,465	682,85
552,886	703,92
553,308	572,85
553,729	811,58
554,151	879,46
554,572	956,69
554,994	1029,25
555,415	1015,21
555,837	877,12
556,258	764,77
556,679	717,96
557,1	699,24
557,521	673,49
557,942	633,7
558,363	619,66
558,784	640,72
559,205	645,4
559,626	465,18
560,047	584,55
560,468	708,6
560,888	804,56
561,309	685,19
561,73	856,05
562,15	785,83
562,571	811,58
562,991	783,49
563,412	755,41
563,832	729,66
564,252	802,22
564,673	832,65
565,093	753,07
565,513	727,32
565,933	769,45
566,353	879,46
566,773	1055
567,193	1033,93
567,613	870,09
568,033	898,18
568,452	863,07
568,872	1001,16
569,292	1296,07
569,711	1406,08
570,131	1434,16
570,551	1401,4
570,97	1317,14
571,389	1286,71
571,809	1319,48
572,228	1092,45
572,647	1045,63
573,067	1045,63
573,486	1389,69
573,905	1757,16
574,324	2124,62
574,743	2063,77
575,162	1686,94
575,581	1113,51
576	1202,45
576,419	1499,7
576,837	1605,02
577,256	1818,01
577,675	1743,11
578,093	1764,18
578,512	1918,65
578,93	2059,09
579,349	2272,08
579,767	2337,61
580,185	1984,19
580,604	1925,68
581,022	1920,99
581,44	2227,6
581,858	2735,5
582,276	3315,95
582,694	3095,94
583,112	2569,32
583,53	2108,24
583,948	2344,63
584,366	2368,04
584,784	2176,11
585,201	1923,34
585,619	1431,82
586,037	1403,74
586,454	1246,92
586,872	1403,74
587,289	1417,78
587,707	1775,88
588,124	1939,72
588,541	2000,57
588,958	2286,12
589,376	2569,32
589,793	2480,38
590,21	2171,43
590,627	1502,04
591,044	1282,03
591,461	1183,73
591,878	1363,95
592,294	1621,41
592,711	2016,96
593,128	2009,94
593,545	2358,67
593,961	2623,16
594,378	3009,34
594,794	2840,83
595,211	2854,87
595,627	2286,12
596,043	2241,65
596,46	2059,09
596,876	1946,74
597,292	1949,08
597,708	2529,53
598,124	2859,55
598,54	2852,53
598,956	2674,65
599,372	2290,8
599,788	2054,41
600,204	1970,15
600,62	1722,05
601,035	1640,13
601,451	1541,83
601,867	1689,28
602,282	2302,5
602,698	3077,22
603,113	3849,6
603,529	4266,21
603,944	3734,91
604,359	2988,28
604,774	2220,58
605,19	1708,01
605,605	1773,54
606,02	1513,74
606,435	1621,41
606,85	1598
607,265	1984,19
607,68	2180,79
608,094	2377,4
608,509	2379,74
608,924	2393,78
609,338	2417,19
609,753	2295,48
610,168	2398,46
610,582	2276,76
610,997	1890,57
611,411	1200,11
611,825	762,43
612,24	881,8
612,654	1541,83
613,068	1972,49
613,482	2339,95
613,896	2283,78
614,31	2274,42
614,724	2178,45
615,138	1544,17
615,552	1354,59
615,966	1031,59
616,379	1167,34
616,793	1242,24
617,207	1209,47
617,62	1303,09
618,034	1331,18
618,447	1354,59
618,861	1403,74
619,274	1216,49
619,687	1052,66
620,101	1176,7
620,514	1600,34
620,927	1818,01
621,34	1392,03
621,753	888,82
622,166	717,96
622,579	853,71
622,992	1293,73
623,405	1715,03
623,817	1803,97
624,23	1586,3
624,643	1462,25
625,055	1183,73
625,468	834,99
625,88	664,13
626,293	383,26
626,705	364,54
627,118	467,52
627,53	565,82
627,942	816,26
628,354	792,86
628,766	811,58
629,179	783,49
629,591	650,08
630,003	703,92
630,414	659,45
630,826	968,4
631,238	795,2
631,65	668,81
632,061	483,91
632,473	439,44
632,885	673,49
633,296	891,16
633,708	1272,67
634,119	1115,85
634,53	891,16
634,942	713,28
635,353	542,42
635,764	418,37
636,175	434,75
636,586	299
636,998	418,37
637,408	385,6
637,819	432,41
638,23	392,62
638,641	479,22
639,052	467,52
639,463	409,01
639,873	247,51
640,284	530,72
640,694	387,94
641,105	469,86
641,515	387,94
641,926	299
642,336	308,37
642,746	266,24
643,157	306,03
643,567	397,31
643,977	497,95
644,387	568,17
644,797	458,16
645,207	343,47
645,617	378,58
646,026	233,47
646,436	231,13
646,846	203,04
647,256	310,71
647,665	299
648,075	268,58
648,484	282,62
648,894	273,26
649,303	226,45
649,713	179,64
650,122	235,81
650,531	193,68
650,94	270,92
651,349	362,2
651,758	181,98
652,167	287,3
652,576	242,83
652,985	362,2
653,394	369,22
653,803	420,71
654,212	373,9
654,62	427,73
655,029	434,75
655,437	799,88
655,846	1598
656,254	19137,98
656,663	52949,35
657,071	61185,7
657,479	61298,05
657,888	47130,78
658,296	28596,08
658,704	15858,88
659,112	9745,41
659,52	5935,01
659,928	3292,55
660,336	1609,7
660,744	769,45
661,152	441,78
661,559	376,24
661,967	282,62
662,375	277,94
662,782	294,32
663,19	310,71
663,597	324,75
664,005	233,47
664,412	261,55
664,819	219,43
665,226	146,87
665,634	53,25
666,041	240,49
666,448	104,74
666,855	27,5
667,262	88,36
667,669	149,21
668,075	86,01
668,482	186,66
668,889	137,51
669,296	153,89
669,702	221,77
670,109	294,32
670,515	249,85
670,922	275,6
671,328	261,55
671,734	39,2
672,141	233,47
672,547	261,55
672,953	233,47
673,359	184,32
673,765	174,96
674,171	118,78
674,577	189
674,983	165,59
675,389	172,61
675,795	254,53
676,201	217,08
676,606	179,64
677,012	240,49
677,417	93,04
677,823	90,7
678,228	184,32
678,634	156,23
679,039	132,83
679,444	142,19
679,849	53,25
680,255	121,12
680,66	196,02
681,065	261,55
681,47	266,24
681,875	254,53
682,28	306,03
682,684	193,68
683,089	221,77
683,494	270,92
683,899	191,34
684,303	226,45
684,708	247,51
685,112	294,32
685,517	118,78
685,921	210,06
686,325	156,23
686,729	32,18
687,134	224,11
687,538	123,46
687,942	233,47
688,346	125,8
688,75	280,28
689,154	207,72
689,558	146,87
689,961	165,59
690,365	224,11
690,769	128,14
691,173	212,4
691,576	170,27
691,98	238,15
692,383	95,38
692,786	90,7
693,19	205,38
693,593	130,48
693,996	153,89
694,399	181,98
694,803	191,34
695,206	104,74
695,609	132,83
696,012	130,48
696,414	64,95
696,817	93,04
697,22	64,95
697,623	114,1
698,025	100,06
698,428	95,38
698,831	137,51
699,233	146,87
699,636	116,44
700,038	116,44
700,44	118,78
700,842	179,64
701,245	97,72
701,647	181,98
702,049	102,4
702,451	193,68
702,853	170,27
703,255	74,31
703,657	83,67
704,058	128,14
704,46	109,42
704,862	177,3
705,264	277,94
705,665	207,72
706,067	210,06
706,468	212,4
706,869	53,25
707,271	137,51
707,672	27,5
708,073	125,8
708,474	160,91
708,876	90,7
709,277	27,5
709,678	20,48
710,079	32,18
710,479	179,64
710,88	254,53
711,281	95,38
711,682	90,7
712,082	256,87
712,483	128,14
712,883	181,98
713,284	128,14
713,684	88,36
714,085	121,12
714,485	121,12
714,885	167,93
715,285	219,43
715,686	186,66
716,086	81,33
716,486	207,72
716,886	109,42
717,285	252,19
717,685	254,53
718,085	252,19
718,485	284,96
718,884	310,71
719,284	282,62
719,684	186,66
720,083	296,66
720,483	308,37
720,882	160,91
721,281	280,28
721,68	273,26
722,08	296,66
722,479	268,58
722,878	252,19
723,277	207,72
723,676	317,73
724,075	411,35
724,474	369,22
724,872	390,28
725,271	385,6
725,67	357,52
726,068	488,59
726,467	575,19
726,865	418,37
727,264	495,61
727,662	607,95
728,061	544,76
728,459	467,52
728,857	453,48
729,255	343,47
729,653	460,5
730,051	413,69
730,449	511,99
730,847	453,48
731,245	479,22
731,643	521,35
732,041	486,25
732,438	371,56
732,836	378,58
733,233	348,15
733,631	437,1
734,028	320,07
734,426	394,97
734,823	284,96
735,22	394,97
735,617	556,46
736,015	437,1
736,412	448,8
736,809	448,8
737,206	472,2
737,603	345,81
737,999	331,77
738,396	282,62
738,793	156,23
739,19	135,17
739,586	259,21
739,983	205,38
740,379	331,77
740,776	299
741,172	200,7
741,568	254,53
741,965	203,04
742,361	186,66
742,757	184,32
743,153	102,4
743,549	104,74
743,945	186,66
744,341	231,13
744,737	263,9
745,133	320,07
745,528	392,62
745,924	469,86
746,32	490,93
746,715	458,16
747,111	390,28
747,506	441,78
747,901	481,57
748,297	308,37
748,692	315,39
749,087	238,15
749,482	268,58
749,877	177,3
750,272	217,08
750,667	193,68
751,062	149,21
751,457	294,32
751,852	306,03
752,247	357,52
752,641	315,39
753,036	380,92
753,43	369,22
753,825	338,79
754,219	446,46
754,614	509,65
755,008	455,82
755,402	453,48
755,796	350,5
756,19	221,77
756,584	345,81
756,978	291,98
757,372	256,87
757,766	181,98
758,16	310,71
758,554	245,17
758,948	254,53
759,341	308,37
759,735	284,96
760,128	502,63
760,522	500,29
760,915	558,8
761,308	451,14
761,702	537,74
762,095	320,07
762,488	256,87
762,881	219,43
763,274	275,6
763,667	233,47
764,06	146,87
764,453	163,25
764,846	181,98
765,239	214,74
765,631	306,03
766,024	263,9
766,416	392,62
766,809	275,6
767,201	259,21
767,594	184,32
767,986	291,98
768,378	207,72
768,77	247,51
769,163	299
769,555	240,49
769,947	130,48
770,339	378,58
770,73	242,83
771,122	212,4
771,514	191,34
771,906	245,17
772,297	252,19
772,689	146,87
773,081	247,51
773,472	139,85
773,863	142,19
774,255	198,36
774,646	151,55
775,037	78,99
775,428	6,44
775,82	186,66
776,211	25,16
776,602	48,57
776,993	88,36
777,383	95,38
777,774	86,01
778,165	116,44
778,556	102,4
778,946	46,23
779,337	207,72
779,727	217,08
780,118	144,53
780,508	146,87
780,898	156,23
781,289	146,87
781,679	221,77
782,069	200,7
782,459	149,21
782,849	71,97
783,239	25,16
783,629	71,97
784,019	78,99
784,408	100,06
784,798	1,76
785,188	102,4
785,577	102,4
785,967	-9,95
786,356	8,78
786,746	88,36
787,135	76,65
787,524	104,74
787,914	-2,93
788,303	123,46
788,692	36,86
789,081	27,5
789,47	-42,71
789,859	-2,93
790,248	74,31
790,636	170,27
791,025	67,29
791,414	97,72
791,802	11,12
792,191	217,08
792,579	11,12
792,968	116,44
793,356	163,25
793,744	214,74
794,133	128,14
794,521	81,33
794,909	135,17
795,297	121,12
795,685	90,7
796,073	123,46
796,461	62,61
796,848	172,61
797,236	132,83
797,624	20,48
798,011	81,33
798,399	71,97
798,787	181,98
799,174	34,52
799,561	74,31
799,949	149,21
800,336	121,12
800,723	130,48
801,11	114,1
801,497	29,84
801,884	165,59
802,271	95,38
802,658	71,97
803,045	67,29
803,432	74,31
803,818	71,97
804,205	-14,63
804,591	6,44
804,978	43,89
805,364	100,06
805,751	125,8
806,137	64,95
806,523	156,23
806,91	55,59
807,296	90,7
807,682	-38,03
808,068	67,29
808,454	83,67
808,84	62,61
809,225	32,18
809,611	11,12
809,997	123,46
810,382	-2,93
810,768	102,4
811,153	36,86
811,539	-70,8
811,924	53,25
812,31	130,48
812,695	-7,61
813,08	76,65
813,465	13,46
813,85	156,23
814,235	34,52
814,62	57,93
815,005	46,23
815,39	8,78
815,775	11,12
816,159	62,61
816,544	15,8
816,929	-7,61
817,313	53,25
817,697	100,06
818,082	-12,29
818,466	-66,12
818,85	86,01
819,235	48,57
819,619	25,16
820,003	142,19
820,387	-12,29
820,771	-80,16
821,155	-21,65
821,538	8,78
821,922	-19,31
822,306	-5,27
822,689	8,78
823,073	67,29
823,457	25,16
823,84	11,12
824,223	22,82
824,607	53,25
824,99	76,65
825,373	32,18
825,756	144,53
826,139	36,86
826,522	41,54
826,905	57,93
827,288	27,5
827,671	50,91
828,054	179,64
828,436	163,25
828,819	46,23
829,201	29,84
829,584	64,95
829,966	1,76
830,349	46,23
830,731	39,2
831,113	-5,27
831,495	39,2
831,878	29,84
832,26	-21,65
832,642	-35,69
833,024	107,08
833,405	102,4
833,787	32,18
834,169	81,33
834,551	-7,61
834,932	78,99
835,314	132,83
835,695	135,17
836,077	163,25
836,458	8,78
836,839	102,4
837,22	167,93
837,602	93,04
837,983	55,59
838,364	109,42
838,745	34,52
839,126	-59,1
839,506	39,2
839,887	6,44
840,268	46,23
840,649	-2,93
841,029	46,23
841,41	67,29
841,79	25,16
842,171	95,38
842,551	15,8
842,931	-16,97
843,311	32,18
843,691	88,36
844,072	90,7
844,452	4,1
844,832	67,29
845,211	64,95
845,591	111,76
845,971	13,46
846,351	41,54
846,73	43,89
847,11	90,7
847,489	76,65
847,869	18,14
848,248	191,34
848,627	6,44
849,007	-42,71
849,386	-21,65
849,765	20,48
850,144	-28,67
850,523	95,38
850,902	13,46
851,281	-9,95
851,66	-31,01
852,038	20,48
852,417	64,95
852,796	69,63
853,174	90,7
853,553	118,78
853,931	83,67
854,309	67,29
854,688	27,5
855,066	100,06
855,444	137,51
855,822	114,1
856,2	57,93
856,578	-31,01
856,956	172,61
857,334	8,78
857,712	43,89
858,089	50,91
858,467	27,5
858,844	41,54
859,222	25,16
859,599	50,91
859,977	-9,95
860,354	-21,65
860,731	41,54
861,109	53,25
861,486	74,31
861,863	-26,33
862,24	93,04
862,617	41,54
862,993	71,97
863,37	-45,06
863,747	46,23
864,124	104,74
864,5	69,63
864,877	-33,35
865,253	34,52
865,63	20,48
866,006	22,82
866,382	60,27
866,758	88,36
867,135	142,19
867,511	76,65
867,887	8,78
868,263	8,78
868,639	-9,95
869,014	41,54
869,39	48,57
869,766	-16,97
870,141	114,1
870,517	132,83
870,892	36,86
871,268	-52,08
871,643	15,8
872,019	-28,67
872,394	41,54
872,769	81,33
873,144	83,67
873,519	102,4
873,894	81,33
874,269	41,54
874,644	15,8
875,019	-21,65
875,393	29,84
875,768	29,84
876,143	-28,67
876,517	11,12
876,891	86,01
877,266	55,59
877,64	48,57
878,014	76,65
878,389	34,52
878,763	69,63
879,137	20,48
879,511	62,61
879,885	135,17
880,259	-5,27
880,632	13,46
881,006	74,31
881,38	78,99
881,753	149,21
882,127	13,46
882,5	46,23
882,874	20,48
883,247	107,08
883,62	-26,33
883,994	-14,63
884,367	67,29
884,74	8,78
885,113	36,86
885,486	60,27
885,859	32,18
886,231	69,63
886,604	-54,42
886,977	-7,61
887,349	-52,08
887,722	32,18
888,094	107,08
888,467	29,84
888,839	100,06
889,211	64,95
889,584	116,44
889,956	121,12
890,328	158,57
890,7	149,21
891,072	114,1
891,444	69,63
891,816	34,52
892,187	15,8
892,559	132,83
892,931	86,01
893,302	46,23
893,674	114,1
894,045	93,04
894,416	-47,4
894,788	39,2
895,159	-7,61
895,53	78,99
895,901	20,48
896,272	53,25
896,643	95,38
897,014	6,44
897,385	18,14
897,756	-21,65
898,126	-31,01
898,497	69,63
898,867	8,78
899,238	20,48
899,608	-47,4
899,979	118,78
900,349	-38,03
900,719	11,12
901,089	4,1
901,459	11,12
901,829	60,27
902,199	-7,61
902,569	78,99
902,939	64,95
903,309	11,12
903,679	46,23
904,048	69,63
904,418	32,18
904,787	-63,78
905,157	139,85
905,526	71,97
905,895	32,18
906,265	83,67
906,634	55,59
907,003	-7,61
907,372	36,86
907,741	64,95
908,11	170,27
908,478	62,61
908,847	39,2
909,216	76,65
909,585	-2,93
909,953	29,84
910,322	62,61
910,69	71,97
911,058	18,14
911,427	-70,8
911,795	102,4
912,163	74,31
912,531	15,8
912,899	76,65
913,267	-19,31
913,635	29,84
914,003	-77,82
914,37	107,08
914,738	151,55
915,106	43,89
915,473	13,46
915,841	41,54
916,208	60,27
916,575	48,57
916,943	-68,46
917,31	27,5
917,677	-38,03
918,044	27,5
918,411	41,54
918,778	111,76
919,145	20,48
919,512	15,8
919,879	95,38
920,245	-42,71
920,612	-49,74
920,978	71,97
921,345	41,54
921,711	-89,53
922,078	-66,12
922,444	-56,76
922,81	18,14
923,176	93,04
923,542	60,27
923,908	-7,61
924,274	-68,46
924,64	90,7
925,006	6,44
925,371	8,78
925,737	11,12
926,103	-2,93
926,468	46,23
926,834	-14,63
927,199	76,65
927,564	104,74
927,93	20,48
928,295	20,48
928,66	97,72
929,025	4,1
929,39	41,54
929,755	-7,61
930,12	1,76
930,484	55,59
930,849	-28,67
931,214	13,46
931,578	-56,76
931,943	20,48
932,307	-21,65
932,672	25,16
933,036	-19,31
933,4	25,16
933,764	64,95
934,128	8,78
934,492	32,18
934,856	20,48
935,22	-84,84
935,584	15,8
935,948	11,12
936,311	46,23
936,675	67,29
937,039	71,97
937,402	137,51
937,765	-7,61
938,129	53,25
938,492	8,78
938,855	53,25
939,218	71,97
939,581	60,27
939,944	15,8
940,307	29,84
940,67	90,7
941,033	146,87
941,396	60,27
941,758	95,38
942,121	-14,63
942,483	-35,69
942,846	-68,46
943,208	-14,63
943,571	-16,97
943,933	-23,99
944,295	97,72
944,657	-9,95
945,019	-70,8
945,381	71,97
945,743	-42,71
946,105	-5,27
946,467	53,25
946,828	-28,67
947,19	50,91
947,551	8,78
947,913	-23,99
948,274	-19,31
948,636	39,2
948,997	4,1
949,358	-26,33
949,719	22,82
950,08	-26,33
950,441	-73,14
950,802	27,5
951,163	-61,44
951,524	83,67
951,885	-12,29
952,245	13,46
952,606	43,89
952,966	60,27
953,327	39,2
953,687	93,04
954,047	41,54
954,408	-14,63
954,768	64,95
955,128	22,82
955,488	-73,14
955,848	18,14
956,208	-38,03
956,568	43,89
956,927	50,91
957,287	-40,37
957,647	15,8
958,006	48,57
958,366	32,18
958,725	27,5
959,084	11,12
959,444	20,48
959,803	95,38
960,162	-61,44
960,521	-31,01
960,88	11,12
961,239	-7,61
961,598	86,01
961,957	-14,63
962,315	20,48
962,674	-5,27
963,033	97,72
963,391	-35,69
963,75	-5,27
964,108	46,23
964,466	55,59
964,824	93,04
965,183	-45,06
965,541	-19,31
965,899	48,57
966,257	-2,93
966,614	71,97
966,972	-42,71
967,33	1,76
967,688	-54,42
968,045	-63,78
968,403	-23,99
968,76	8,78
969,118	67,29
969,475	41,54
969,832	29,84
970,189	78,99
970,546	67,29
970,903	125,8
971,26	27,5
971,617	22,82
971,974	8,78
972,331	-40,37
972,688	-47,4
973,044	-2,93
973,401	4,1
973,757	-40,37
974,114	36,86
974,47	6,44
974,826	57,93
975,182	-14,63
975,538	-33,35
975,895	123,46
976,251	62,61
976,606	142,19
976,962	36,86
977,318	13,46
977,674	20,48
978,029	1,76
978,385	15,8
978,74	43,89
979,096	83,67
979,451	29,84
979,806	27,5
980,162	-12,29
980,517	93,04
980,872	-2,93
981,227	39,2
981,582	-35,69
981,937	-63,78
982,291	76,65
982,646	158,57
983,001	18,14
983,355	29,84
983,71	135,17
984,064	57,93
984,419	6,44
984,773	-45,06
985,127	62,61
985,481	107,08
985,835	20,48
986,189	81,33
986,543	27,5
986,897	-45,06
987,251	13,46
987,605	57,93
987,958	15,8
988,312	-68,46
988,665	76,65
989,019	46,23
989,372	-49,74
989,725	32,18
990,079	55,59
990,432	-2,93
990,785	-26,33
991,138	22,82
991,491	-112,93
991,844	20,48
992,197	-14,63
992,549	86,01
992,902	4,1
993,254	62,61
993,607	-9,95
993,959	22,82
994,312	74,31
994,664	69,63
995,016	57,93
995,368	53,25
995,721	-28,67
996,073	76,65
996,425	22,82
996,776	11,12
997,128	125,8
997,48	-31,01
997,832	78,99
998,183	69,63
998,535	43,89
998,886	93,04
999,237	29,84
999,589	27,5
999,94	4,1
1000,291	62,61
1000,642	43,89
1000,993	11,12
1001,344	48,57
1001,695	107,08
1002,046	48,57
1002,397	93,04
1002,747	57,93
1003,098	95,38
1003,448	18,14
1003,799	64,95
1004,149	62,61
1004,499	81,33
1004,85	-26,33
1005,2	-2,93
1005,55	-31,01
1005,9	-14,63
1006,25	88,36
1006,6	-0,59
1006,949	-16,97
1007,299	-49,74
1007,649	46,23
1007,998	50,91
1008,348	-21,65
1008,697	6,44
1009,047	41,54
1009,396	1,76
1009,745	36,86
1010,094	-35,69
1010,443	-31,01
1010,792	-0,59
1011,141	97,72
1011,49	-101,23
1011,839	18,14
1012,188	20,48
1012,536	11,12
1012,885	-28,67
1013,233	36,86
1013,582	76,65
1013,93	25,16
1014,278	86,01
1014,627	29,84
1014,975	-2,93
1015,323	-89,53
1015,671	25,16
1016,019	93,04
1016,367	76,65
1016,714	-61,44
1017,062	46,23
1017,41	-40,37
1017,757	25,16
1018,105	102,4
1018,452	-98,89
1018,8	81,33
1019,147	83,67
1019,494	-5,27
1019,841	-31,01
1020,188	8,78
1020,535	-70,8
1020,882	-16,97
1021,229	121,12
1021,576	43,89
1021,922	39,2
1022,269	83,67
1022,615	-47,4
1022,962	-73,14
1023,308	-73,14
1023,655	-73,14
